# E (eV)   ldos(E)   pdos(E)    pdos(E)    pdos(E)   
  -5.971  0.121E-06  0.403E-07  0.403E-07  0.403E-07
  -5.871  0.214E-03  0.713E-04  0.713E-04  0.713E-04
  -5.771  0.961E-02  0.320E-02  0.320E-02  0.320E-02
  -5.671  0.326E-01  0.109E-01  0.109E-01  0.109E-01
  -5.571  0.443E-01  0.148E-01  0.148E-01  0.148E-01
  -5.471  0.505E-01  0.168E-01  0.168E-01  0.168E-01
  -5.371  0.547E-01  0.182E-01  0.182E-01  0.182E-01
  -5.271  0.563E-01  0.188E-01  0.188E-01  0.188E-01
  -5.171  0.543E-01  0.181E-01  0.181E-01  0.181E-01
  -5.071  0.599E-01  0.200E-01  0.200E-01  0.200E-01
  -4.971  0.652E-01  0.217E-01  0.217E-01  0.217E-01
  -4.871  0.505E-01  0.168E-01  0.168E-01  0.168E-01
  -4.771  0.594E-01  0.198E-01  0.198E-01  0.198E-01
  -4.671  0.629E-01  0.210E-01  0.210E-01  0.210E-01
  -4.571  0.580E-01  0.193E-01  0.193E-01  0.193E-01
  -4.471  0.501E-01  0.167E-01  0.167E-01  0.167E-01
  -4.371  0.707E-01  0.236E-01  0.236E-01  0.236E-01
  -4.271  0.441E-01  0.147E-01  0.147E-01  0.147E-01
  -4.171  0.660E-01  0.220E-01  0.220E-01  0.220E-01
  -4.071  0.529E-01  0.176E-01  0.176E-01  0.176E-01
  -3.971  0.534E-01  0.178E-01  0.178E-01  0.178E-01
  -3.871  0.637E-01  0.212E-01  0.212E-01  0.212E-01
  -3.771  0.440E-01  0.147E-01  0.147E-01  0.147E-01
  -3.671  0.708E-01  0.236E-01  0.236E-01  0.236E-01
  -3.571  0.454E-01  0.151E-01  0.151E-01  0.151E-01
  -3.471  0.729E-01  0.243E-01  0.243E-01  0.243E-01
  -3.371  0.698E-01  0.233E-01  0.233E-01  0.233E-01
  -3.271  0.413E-01  0.138E-01  0.138E-01  0.138E-01
  -3.171  0.420E-01  0.140E-01  0.140E-01  0.140E-01
  -3.071  0.269E-01  0.895E-02  0.895E-02  0.895E-02
  -2.971  0.556E-01  0.185E-01  0.185E-01  0.185E-01
  -2.871  0.157E-01  0.523E-02  0.523E-02  0.523E-02
  -2.771  0.675E-01  0.225E-01  0.225E-01  0.225E-01
  -2.671  0.118E-01  0.394E-02  0.394E-02  0.394E-02
  -2.571  0.650E-01  0.217E-01  0.217E-01  0.217E-01
  -2.471  0.201E-01  0.670E-02  0.670E-02  0.670E-02
  -2.371  0.475E-01  0.158E-01  0.158E-01  0.158E-01
  -2.271  0.426E-01  0.142E-01  0.142E-01  0.142E-01
  -2.171  0.343E-01  0.114E-01  0.114E-01  0.114E-01
  -2.071  0.684E-01  0.228E-01  0.228E-01  0.228E-01
  -1.971  0.791E-01  0.264E-01  0.264E-01  0.264E-01
  -1.871  0.610E-01  0.203E-01  0.203E-01  0.203E-01
  -1.771  0.861E-01  0.287E-01  0.287E-01  0.287E-01
  -1.671  0.987E-01  0.329E-01  0.329E-01  0.329E-01
  -1.571  0.315E+00  0.105E+00  0.105E+00  0.105E+00
  -1.471  0.187E+00  0.623E-01  0.623E-01  0.623E-01
  -1.371  0.869E-01  0.290E-01  0.290E-01  0.290E-01
  -1.271  0.104E+00  0.348E-01  0.348E-01  0.348E-01
  -1.171  0.600E-01  0.200E-01  0.200E-01  0.200E-01
  -1.071  0.686E-01  0.229E-01  0.229E-01  0.229E-01
  -0.971  0.122E+00  0.407E-01  0.407E-01  0.407E-01
  -0.871  0.759E-01  0.253E-01  0.253E-01  0.253E-01
  -0.771  0.151E+00  0.504E-01  0.504E-01  0.504E-01
  -0.671  0.120E+00  0.401E-01  0.401E-01  0.401E-01
  -0.571  0.105E+00  0.351E-01  0.351E-01  0.351E-01
  -0.471  0.679E-01  0.226E-01  0.226E-01  0.226E-01
  -0.371  0.914E-01  0.305E-01  0.305E-01  0.305E-01
  -0.271  0.541E-01  0.180E-01  0.180E-01  0.180E-01
  -0.171  0.760E-01  0.253E-01  0.253E-01  0.253E-01
  -0.071  0.750E-01  0.250E-01  0.250E-01  0.250E-01
   0.029  0.500E-01  0.167E-01  0.167E-01  0.167E-01
   0.129  0.821E-01  0.274E-01  0.274E-01  0.274E-01
   0.229  0.307E-01  0.102E-01  0.102E-01  0.102E-01
   0.329  0.106E+00  0.355E-01  0.355E-01  0.355E-01
   0.429  0.542E-01  0.181E-01  0.181E-01  0.181E-01
   0.529  0.261E-01  0.871E-02  0.871E-02  0.871E-02
   0.629  0.898E-01  0.299E-01  0.299E-01  0.299E-01
   0.729  0.741E-01  0.247E-01  0.247E-01  0.247E-01
   0.829  0.487E-01  0.162E-01  0.162E-01  0.162E-01
   0.929  0.233E-01  0.777E-02  0.777E-02  0.777E-02
   1.029  0.104E+00  0.346E-01  0.346E-01  0.346E-01
   1.129  0.757E-01  0.252E-01  0.252E-01  0.252E-01
   1.229  0.127E-01  0.424E-02  0.424E-02  0.424E-02
   1.329  0.674E-01  0.225E-01  0.225E-01  0.225E-01
   1.429  0.803E-01  0.268E-01  0.268E-01  0.268E-01
   1.529  0.454E-01  0.151E-01  0.151E-01  0.151E-01
   1.629  0.808E-01  0.269E-01  0.269E-01  0.269E-01
   1.729  0.316E-01  0.105E-01  0.105E-01  0.105E-01
   1.829  0.579E-01  0.193E-01  0.193E-01  0.193E-01
   1.929  0.346E+00  0.115E+00  0.115E+00  0.115E+00
   2.029  0.241E+00  0.803E-01  0.803E-01  0.803E-01
   2.129  0.197E+00  0.658E-01  0.658E-01  0.658E-01
   2.229  0.226E+00  0.755E-01  0.755E-01  0.755E-01
   2.329  0.224E+00  0.745E-01  0.745E-01  0.745E-01
   2.429  0.131E+00  0.435E-01  0.435E-01  0.435E-01
   2.529  0.259E+00  0.863E-01  0.863E-01  0.863E-01
   2.629  0.900E-01  0.300E-01  0.300E-01  0.300E-01
   2.729  0.179E+00  0.598E-01  0.598E-01  0.598E-01
   2.829  0.222E+00  0.739E-01  0.739E-01  0.739E-01
   2.929  0.189E+00  0.630E-01  0.630E-01  0.630E-01
   3.029  0.837E-01  0.279E-01  0.279E-01  0.279E-01
   3.129  0.220E+00  0.732E-01  0.732E-01  0.732E-01
   3.229  0.189E+00  0.629E-01  0.629E-01  0.629E-01
   3.329  0.266E+00  0.887E-01  0.887E-01  0.887E-01
   3.429  0.123E+01  0.409E+00  0.409E+00  0.409E+00
   3.529  0.963E+00  0.321E+00  0.321E+00  0.321E+00
   3.629  0.626E+00  0.209E+00  0.209E+00  0.209E+00
   3.729  0.665E+00  0.222E+00  0.222E+00  0.222E+00
   3.829  0.112E+01  0.372E+00  0.372E+00  0.372E+00
   3.929  0.625E+00  0.208E+00  0.208E+00  0.208E+00
   4.029  0.499E+00  0.166E+00  0.166E+00  0.166E+00
   4.129  0.463E+00  0.154E+00  0.154E+00  0.154E+00
   4.229  0.426E+00  0.142E+00  0.142E+00  0.142E+00
   4.329  0.411E+00  0.137E+00  0.137E+00  0.137E+00
   4.429  0.373E+00  0.124E+00  0.124E+00  0.124E+00
   4.529  0.380E+00  0.127E+00  0.127E+00  0.127E+00
   4.629  0.343E+00  0.114E+00  0.114E+00  0.114E+00
   4.729  0.392E+00  0.131E+00  0.131E+00  0.131E+00
   4.829  0.389E+00  0.130E+00  0.130E+00  0.130E+00
   4.929  0.312E+00  0.104E+00  0.104E+00  0.104E+00
   5.029  0.315E+00  0.105E+00  0.105E+00  0.105E+00
   5.129  0.118E+01  0.394E+00  0.394E+00  0.394E+00
   5.229  0.916E+00  0.305E+00  0.305E+00  0.305E+00
   5.329  0.626E+00  0.209E+00  0.209E+00  0.209E+00
   5.429  0.787E+00  0.262E+00  0.262E+00  0.262E+00
   5.529  0.475E+00  0.158E+00  0.158E+00  0.158E+00
   5.629  0.700E+00  0.233E+00  0.233E+00  0.233E+00
   5.729  0.640E+00  0.213E+00  0.213E+00  0.213E+00
   5.829  0.474E+00  0.158E+00  0.158E+00  0.158E+00
   5.929  0.707E+00  0.236E+00  0.236E+00  0.236E+00
   6.029  0.714E+00  0.238E+00  0.238E+00  0.238E+00
   6.129  0.729E+00  0.243E+00  0.243E+00  0.243E+00
   6.229  0.105E+01  0.351E+00  0.351E+00  0.351E+00
   6.329  0.152E+01  0.507E+00  0.507E+00  0.507E+00
   6.429  0.216E+00  0.719E-01  0.719E-01  0.719E-01
   6.529  0.629E-03  0.210E-03  0.210E-03  0.210E-03
   6.629  0.978E-03  0.326E-03  0.326E-03  0.326E-03
   6.729  0.116E+00  0.385E-01  0.385E-01  0.385E-01
   6.829  0.375E+00  0.125E+00  0.125E+00  0.125E+00
   6.929  0.428E+00  0.143E+00  0.143E+00  0.143E+00
   7.029  0.306E+00  0.102E+00  0.102E+00  0.102E+00
   7.129  0.266E+00  0.887E-01  0.887E-01  0.887E-01
   7.229  0.201E+00  0.671E-01  0.671E-01  0.671E-01
   7.329  0.301E+00  0.100E+00  0.100E+00  0.100E+00
   7.429  0.438E+00  0.146E+00  0.146E+00  0.146E+00
   7.529  0.225E+00  0.750E-01  0.750E-01  0.750E-01
   7.629  0.206E+00  0.686E-01  0.686E-01  0.686E-01
   7.729  0.235E+00  0.785E-01  0.785E-01  0.785E-01
   7.829  0.250E+00  0.835E-01  0.835E-01  0.835E-01
   7.929  0.289E+00  0.962E-01  0.962E-01  0.962E-01
   8.029  0.297E+00  0.990E-01  0.990E-01  0.990E-01
   8.129  0.299E+00  0.996E-01  0.996E-01  0.996E-01
   8.229  0.285E+00  0.950E-01  0.950E-01  0.950E-01
   8.329  0.257E+00  0.857E-01  0.857E-01  0.857E-01
   8.429  0.286E+00  0.952E-01  0.952E-01  0.952E-01
   8.529  0.306E+00  0.102E+00  0.102E+00  0.102E+00
   8.629  0.321E+00  0.107E+00  0.107E+00  0.107E+00
   8.729  0.373E+00  0.124E+00  0.124E+00  0.124E+00
   8.829  0.102E+01  0.342E+00  0.342E+00  0.342E+00
   8.929  0.153E+01  0.510E+00  0.510E+00  0.510E+00
   9.029  0.627E+00  0.209E+00  0.209E+00  0.209E+00
   9.129  0.525E+00  0.175E+00  0.175E+00  0.175E+00
   9.229  0.381E+00  0.127E+00  0.127E+00  0.127E+00
   9.329  0.431E+00  0.144E+00  0.144E+00  0.144E+00
   9.429  0.445E+00  0.148E+00  0.148E+00  0.148E+00
   9.529  0.578E+00  0.193E+00  0.193E+00  0.193E+00
   9.629  0.103E+01  0.343E+00  0.343E+00  0.343E+00
   9.729  0.107E+01  0.357E+00  0.357E+00  0.357E+00
   9.829  0.101E+01  0.337E+00  0.337E+00  0.337E+00
   9.929  0.518E+00  0.173E+00  0.173E+00  0.173E+00
  10.029  0.137E+00  0.456E-01  0.456E-01  0.456E-01
  10.129  0.320E+00  0.107E+00  0.107E+00  0.107E+00
  10.229  0.262E+00  0.875E-01  0.875E-01  0.875E-01
  10.329  0.151E+00  0.503E-01  0.503E-01  0.503E-01
  10.429  0.317E+00  0.106E+00  0.106E+00  0.106E+00
  10.529  0.564E-01  0.188E-01  0.188E-01  0.188E-01
  10.629  0.187E+00  0.623E-01  0.623E-01  0.623E-01
  10.729  0.214E+00  0.714E-01  0.714E-01  0.714E-01
  10.829  0.208E+00  0.694E-01  0.694E-01  0.694E-01
  10.929  0.273E+00  0.909E-01  0.909E-01  0.909E-01
  11.029  0.228E+00  0.758E-01  0.758E-01  0.758E-01
  11.129  0.203E+00  0.676E-01  0.676E-01  0.676E-01
  11.229  0.244E+00  0.813E-01  0.813E-01  0.813E-01
  11.329  0.166E+00  0.555E-01  0.555E-01  0.555E-01
  11.429  0.738E-01  0.246E-01  0.246E-01  0.246E-01
  11.529  0.257E+00  0.858E-01  0.858E-01  0.858E-01
  11.629  0.144E+00  0.479E-01  0.479E-01  0.479E-01
  11.729  0.110E+00  0.368E-01  0.368E-01  0.368E-01
  11.829  0.226E+00  0.752E-01  0.752E-01  0.752E-01
  11.929  0.121E+00  0.402E-01  0.402E-01  0.402E-01
  12.029  0.130E+00  0.433E-01  0.433E-01  0.433E-01
  12.129  0.246E+00  0.819E-01  0.819E-01  0.819E-01
  12.229  0.113E+00  0.377E-01  0.377E-01  0.377E-01
  12.329  0.962E-01  0.321E-01  0.321E-01  0.321E-01
  12.429  0.238E+00  0.792E-01  0.792E-01  0.792E-01
  12.529  0.170E+00  0.565E-01  0.565E-01  0.565E-01
  12.629  0.564E-01  0.188E-01  0.188E-01  0.188E-01
  12.729  0.263E+00  0.877E-01  0.877E-01  0.877E-01
  12.829  0.964E-01  0.321E-01  0.321E-01  0.321E-01
  12.929  0.147E+00  0.489E-01  0.489E-01  0.489E-01
  13.029  0.242E+00  0.807E-01  0.807E-01  0.807E-01
  13.129  0.107E+00  0.357E-01  0.357E-01  0.357E-01
  13.229  0.876E-01  0.292E-01  0.292E-01  0.292E-01
  13.329  0.282E+00  0.939E-01  0.939E-01  0.939E-01
  13.429  0.127E+00  0.424E-01  0.424E-01  0.424E-01
  13.529  0.848E-01  0.283E-01  0.283E-01  0.283E-01
  13.629  0.261E+00  0.871E-01  0.871E-01  0.871E-01
  13.729  0.159E+00  0.531E-01  0.531E-01  0.531E-01
  13.829  0.216E+00  0.719E-01  0.719E-01  0.719E-01
  13.929  0.256E+00  0.854E-01  0.854E-01  0.854E-01
  14.029  0.194E+00  0.648E-01  0.648E-01  0.648E-01
  14.129  0.142E+00  0.475E-01  0.475E-01  0.475E-01
  14.229  0.160E+00  0.534E-01  0.534E-01  0.534E-01
  14.329  0.127E+00  0.422E-01  0.422E-01  0.422E-01
  14.429  0.703E-01  0.234E-01  0.234E-01  0.234E-01
  14.529  0.138E+00  0.459E-01  0.459E-01  0.459E-01
  14.629  0.176E+00  0.587E-01  0.587E-01  0.587E-01
  14.729  0.524E-01  0.175E-01  0.175E-01  0.175E-01
  14.829  0.147E+00  0.491E-01  0.491E-01  0.491E-01
  14.929  0.262E+00  0.874E-01  0.874E-01  0.874E-01
  15.029  0.525E-01  0.175E-01  0.175E-01  0.175E-01
  15.129  0.136E+00  0.452E-01  0.452E-01  0.452E-01
  15.229  0.212E+00  0.706E-01  0.706E-01  0.706E-01
  15.329  0.131E+00  0.436E-01  0.436E-01  0.436E-01
  15.429  0.148E+00  0.493E-01  0.493E-01  0.493E-01
  15.529  0.154E+00  0.513E-01  0.513E-01  0.513E-01
  15.629  0.141E+00  0.470E-01  0.470E-01  0.470E-01
  15.729  0.159E+00  0.531E-01  0.531E-01  0.531E-01
  15.829  0.197E+00  0.658E-01  0.658E-01  0.658E-01
  15.929  0.129E+00  0.429E-01  0.429E-01  0.429E-01
  16.029  0.106E+00  0.354E-01  0.354E-01  0.354E-01
  16.129  0.271E+00  0.905E-01  0.905E-01  0.905E-01
  16.229  0.166E+00  0.552E-01  0.552E-01  0.552E-01
  16.329  0.171E+00  0.571E-01  0.571E-01  0.571E-01
  16.429  0.299E+00  0.996E-01  0.996E-01  0.996E-01
  16.529  0.381E+00  0.127E+00  0.127E+00  0.127E+00
  16.629  0.130E+00  0.435E-01  0.435E-01  0.435E-01
  16.729  0.201E-01  0.669E-02  0.669E-02  0.669E-02
  16.829  0.188E-01  0.627E-02  0.627E-02  0.627E-02
  16.929  0.434E-01  0.145E-01  0.145E-01  0.145E-01
  17.029  0.579E-01  0.193E-01  0.193E-01  0.193E-01
  17.129  0.257E-01  0.855E-02  0.855E-02  0.855E-02
  17.229  0.211E-01  0.703E-02  0.703E-02  0.703E-02
  17.329  0.281E-01  0.938E-02  0.938E-02  0.938E-02
  17.429  0.857E-01  0.286E-01  0.286E-01  0.286E-01
  17.529  0.627E-01  0.209E-01  0.209E-01  0.209E-01
  17.629  0.202E-01  0.674E-02  0.674E-02  0.674E-02
  17.729  0.657E-01  0.219E-01  0.219E-01  0.219E-01
  17.829  0.165E-01  0.551E-02  0.551E-02  0.551E-02
  17.929  0.858E-02  0.286E-02  0.286E-02  0.286E-02
  18.029  0.924E-01  0.308E-01  0.308E-01  0.308E-01
  18.129  0.300E-01  0.100E-01  0.100E-01  0.100E-01
  18.229  0.110E-01  0.365E-02  0.365E-02  0.365E-02
  18.329  0.399E-01  0.133E-01  0.133E-01  0.133E-01
  18.429  0.596E-01  0.199E-01  0.199E-01  0.199E-01
  18.529  0.260E-01  0.867E-02  0.867E-02  0.867E-02
  18.629  0.239E-01  0.798E-02  0.798E-02  0.798E-02
  18.729  0.495E-01  0.165E-01  0.165E-01  0.165E-01
  18.829  0.150E-01  0.501E-02  0.501E-02  0.501E-02
  18.929  0.427E-01  0.142E-01  0.142E-01  0.142E-01
  19.029  0.502E-01  0.167E-01  0.167E-01  0.167E-01
  19.129  0.170E-01  0.567E-02  0.567E-02  0.567E-02
  19.229  0.296E-01  0.986E-02  0.986E-02  0.986E-02
  19.329  0.519E-01  0.173E-01  0.173E-01  0.173E-01
  19.429  0.212E-01  0.708E-02  0.708E-02  0.708E-02
  19.529  0.350E-01  0.117E-01  0.117E-01  0.117E-01
  19.629  0.375E-01  0.125E-01  0.125E-01  0.125E-01
  19.729  0.322E-01  0.107E-01  0.107E-01  0.107E-01
  19.829  0.480E-01  0.160E-01  0.160E-01  0.160E-01
  19.929  0.148E-01  0.494E-02  0.494E-02  0.494E-02
  20.029  0.565E-02  0.188E-02  0.188E-02  0.188E-02
  20.129  0.242E-01  0.808E-02  0.808E-02  0.808E-02
  20.229  0.357E-01  0.119E-01  0.119E-01  0.119E-01
  20.329  0.178E-01  0.594E-02  0.594E-02  0.594E-02
  20.429  0.829E-02  0.276E-02  0.276E-02  0.276E-02
  20.529  0.244E-01  0.812E-02  0.812E-02  0.812E-02
  20.629  0.273E-01  0.911E-02  0.911E-02  0.911E-02
  20.729  0.610E-02  0.203E-02  0.203E-02  0.203E-02
  20.829  0.322E-01  0.107E-01  0.107E-01  0.107E-01
  20.929  0.146E-01  0.487E-02  0.487E-02  0.487E-02
  21.029  0.360E-01  0.120E-01  0.120E-01  0.120E-01
  21.129  0.237E-01  0.790E-02  0.790E-02  0.790E-02
  21.229  0.774E-02  0.258E-02  0.258E-02  0.258E-02
  21.329  0.518E-03  0.173E-03  0.173E-03  0.173E-03
  21.429  0.381E-04  0.127E-04  0.127E-04  0.127E-04
  21.529  0.416E-07  0.139E-07  0.139E-07  0.139E-07
