# E (eV)   ldos(E)   pdos(E)   
  -5.971  0.455E-04  0.455E-04
  -5.871  0.461E-01  0.461E-01
  -5.771  0.828E+00  0.828E+00
  -5.671  0.742E+00  0.742E+00
  -5.571  0.448E+00  0.448E+00
  -5.471  0.346E+00  0.346E+00
  -5.371  0.291E+00  0.291E+00
  -5.271  0.248E+00  0.248E+00
  -5.171  0.209E+00  0.209E+00
  -5.071  0.207E+00  0.207E+00
  -4.971  0.203E+00  0.203E+00
  -4.871  0.145E+00  0.145E+00
  -4.771  0.164E+00  0.164E+00
  -4.671  0.159E+00  0.159E+00
  -4.571  0.142E+00  0.142E+00
  -4.471  0.119E+00  0.119E+00
  -4.371  0.158E+00  0.158E+00
  -4.271  0.100E+00  0.100E+00
  -4.171  0.139E+00  0.139E+00
  -4.071  0.114E+00  0.114E+00
  -3.971  0.109E+00  0.109E+00
  -3.871  0.134E+00  0.134E+00
  -3.771  0.888E-01  0.888E-01
  -3.671  0.149E+00  0.149E+00
  -3.571  0.976E-01  0.976E-01
  -3.471  0.163E+00  0.163E+00
  -3.371  0.179E+00  0.179E+00
  -3.271  0.721E-01  0.721E-01
  -3.171  0.688E-01  0.688E-01
  -3.071  0.429E-01  0.429E-01
  -2.971  0.884E-01  0.884E-01
  -2.871  0.249E-01  0.249E-01
  -2.771  0.105E+00  0.105E+00
  -2.671  0.187E-01  0.187E-01
  -2.571  0.100E+00  0.100E+00
  -2.471  0.304E-01  0.304E-01
  -2.371  0.754E-01  0.754E-01
  -2.271  0.622E-01  0.622E-01
  -2.171  0.573E-01  0.573E-01
  -2.071  0.105E+00  0.105E+00
  -1.971  0.139E+00  0.139E+00
  -1.871  0.102E+00  0.102E+00
  -1.771  0.133E+00  0.133E+00
  -1.671  0.149E+00  0.149E+00
  -1.571  0.415E+00  0.415E+00
  -1.471  0.235E+00  0.235E+00
  -1.371  0.104E+00  0.104E+00
  -1.271  0.124E+00  0.124E+00
  -1.171  0.675E-01  0.675E-01
  -1.071  0.760E-01  0.760E-01
  -0.971  0.134E+00  0.134E+00
  -0.871  0.778E-01  0.778E-01
  -0.771  0.969E-01  0.969E-01
  -0.671  0.732E-01  0.732E-01
  -0.571  0.658E-01  0.658E-01
  -0.471  0.619E-01  0.619E-01
  -0.371  0.698E-01  0.698E-01
  -0.271  0.304E-01  0.304E-01
  -0.171  0.792E-01  0.792E-01
  -0.071  0.474E-01  0.474E-01
   0.029  0.322E-01  0.322E-01
   0.129  0.832E-01  0.832E-01
   0.229  0.184E-01  0.184E-01
   0.329  0.710E-01  0.710E-01
   0.429  0.545E-01  0.545E-01
   0.529  0.226E-01  0.226E-01
   0.629  0.584E-01  0.584E-01
   0.729  0.585E-01  0.585E-01
   0.829  0.400E-01  0.400E-01
   0.929  0.199E-01  0.199E-01
   1.029  0.722E-01  0.722E-01
   1.129  0.509E-01  0.509E-01
   1.229  0.113E-01  0.113E-01
   1.329  0.586E-01  0.586E-01
   1.429  0.473E-01  0.473E-01
   1.529  0.238E-01  0.238E-01
   1.629  0.655E-01  0.655E-01
   1.729  0.221E-01  0.221E-01
   1.829  0.138E-01  0.138E-01
   1.929  0.934E-01  0.934E-01
   2.029  0.195E-01  0.195E-01
   2.129  0.872E-02  0.872E-02
   2.229  0.714E-01  0.714E-01
   2.329  0.382E-01  0.382E-01
   2.429  0.180E-01  0.180E-01
   2.529  0.704E-01  0.704E-01
   2.629  0.184E-01  0.184E-01
   2.729  0.139E-01  0.139E-01
   2.829  0.871E-01  0.871E-01
   2.929  0.264E-01  0.264E-01
   3.029  0.809E-02  0.809E-02
   3.129  0.579E-01  0.579E-01
   3.229  0.363E-01  0.363E-01
   3.329  0.254E-01  0.254E-01
   3.429  0.508E-01  0.508E-01
   3.529  0.308E-01  0.308E-01
   3.629  0.959E-02  0.959E-02
   3.729  0.553E-01  0.553E-01
   3.829  0.450E-01  0.450E-01
   3.929  0.103E-01  0.103E-01
   4.029  0.383E-01  0.383E-01
   4.129  0.318E-01  0.318E-01
   4.229  0.294E-01  0.294E-01
   4.329  0.412E-01  0.412E-01
   4.429  0.223E-01  0.223E-01
   4.529  0.215E-01  0.215E-01
   4.629  0.312E-01  0.312E-01
   4.729  0.317E-01  0.317E-01
   4.829  0.295E-01  0.295E-01
   4.929  0.234E-01  0.234E-01
   5.029  0.108E-01  0.108E-01
   5.129  0.404E-01  0.404E-01
   5.229  0.234E-01  0.234E-01
   5.329  0.943E-02  0.943E-02
   5.429  0.360E-01  0.360E-01
   5.529  0.656E-02  0.656E-02
   5.629  0.284E-01  0.284E-01
   5.729  0.182E-01  0.182E-01
   5.829  0.865E-02  0.865E-02
   5.929  0.190E-01  0.190E-01
   6.029  0.127E-01  0.127E-01
   6.129  0.942E-02  0.942E-02
   6.229  0.818E-02  0.818E-02
   6.329  0.306E-02  0.306E-02
   6.429  0.121E-03  0.121E-03
   6.529  0.198E-06  0.198E-06
   6.629  0.637E-03  0.637E-03
   6.729  0.752E-01  0.752E-01
   6.829  0.243E+00  0.243E+00
   6.929  0.284E+00  0.284E+00
   7.029  0.193E+00  0.193E+00
   7.129  0.161E+00  0.161E+00
   7.229  0.114E+00  0.114E+00
   7.329  0.158E+00  0.158E+00
   7.429  0.224E+00  0.224E+00
   7.529  0.111E+00  0.111E+00
   7.629  0.958E-01  0.958E-01
   7.729  0.105E+00  0.105E+00
   7.829  0.184E+00  0.184E+00
   7.929  0.319E+00  0.319E+00
   8.029  0.221E+00  0.221E+00
   8.129  0.172E+00  0.172E+00
   8.229  0.141E+00  0.141E+00
   8.329  0.105E+00  0.105E+00
   8.429  0.112E+00  0.112E+00
   8.529  0.970E-01  0.970E-01
   8.629  0.866E-01  0.866E-01
   8.729  0.586E-01  0.586E-01
   8.829  0.645E-01  0.645E-01
   8.929  0.756E-01  0.756E-01
   9.029  0.178E-01  0.178E-01
   9.129  0.245E-01  0.245E-01
   9.229  0.729E-02  0.729E-02
   9.329  0.232E-01  0.232E-01
   9.429  0.518E-01  0.518E-01
   9.529  0.109E+00  0.109E+00
   9.629  0.980E-01  0.980E-01
   9.729  0.615E-01  0.615E-01
   9.829  0.253E+00  0.253E+00
   9.929  0.472E+00  0.472E+00
  10.029  0.245E+00  0.245E+00
  10.129  0.270E+00  0.270E+00
  10.229  0.176E+00  0.176E+00
  10.329  0.180E+00  0.180E+00
  10.429  0.191E+00  0.191E+00
  10.529  0.714E-01  0.714E-01
  10.629  0.144E+00  0.144E+00
  10.729  0.138E+00  0.138E+00
  10.829  0.191E+00  0.191E+00
  10.929  0.717E-01  0.717E-01
  11.029  0.478E-01  0.478E-01
  11.129  0.115E+00  0.115E+00
  11.229  0.667E-01  0.667E-01
  11.329  0.543E-02  0.543E-02
  11.429  0.786E-02  0.786E-02
  11.529  0.160E-01  0.160E-01
  11.629  0.545E-01  0.545E-01
  11.729  0.812E-02  0.812E-02
  11.829  0.772E-02  0.772E-02
  11.929  0.839E-02  0.839E-02
  12.029  0.449E-01  0.449E-01
  12.129  0.227E-01  0.227E-01
  12.229  0.478E-02  0.478E-02
  12.329  0.114E-01  0.114E-01
  12.429  0.182E-01  0.182E-01
  12.529  0.457E-01  0.457E-01
  12.629  0.320E-02  0.320E-02
  12.729  0.187E-01  0.187E-01
  12.829  0.434E-01  0.434E-01
  12.929  0.850E-01  0.850E-01
  13.029  0.583E-01  0.583E-01
  13.129  0.181E-01  0.181E-01
  13.229  0.463E-01  0.463E-01
  13.329  0.666E-01  0.666E-01
  13.429  0.202E-01  0.202E-01
  13.529  0.373E-01  0.373E-01
  13.629  0.519E-01  0.519E-01
  13.729  0.318E-01  0.318E-01
  13.829  0.446E-01  0.446E-01
  13.929  0.423E-01  0.423E-01
  14.029  0.614E-01  0.614E-01
  14.129  0.455E-01  0.455E-01
  14.229  0.344E-01  0.344E-01
  14.329  0.187E-01  0.187E-01
  14.429  0.334E-01  0.334E-01
  14.529  0.319E-01  0.319E-01
  14.629  0.218E-01  0.218E-01
  14.729  0.170E-01  0.170E-01
  14.829  0.388E-01  0.388E-01
  14.929  0.509E-01  0.509E-01
  15.029  0.140E-01  0.140E-01
  15.129  0.226E-01  0.226E-01
  15.229  0.542E-01  0.542E-01
  15.329  0.436E-01  0.436E-01
  15.429  0.263E-01  0.263E-01
  15.529  0.588E-02  0.588E-02
  15.629  0.458E-01  0.458E-01
  15.729  0.471E-01  0.471E-01
  15.829  0.967E-02  0.967E-02
  15.929  0.182E-01  0.182E-01
  16.029  0.290E-01  0.290E-01
  16.129  0.390E-01  0.390E-01
  16.229  0.120E-01  0.120E-01
  16.329  0.246E-01  0.246E-01
  16.429  0.157E-01  0.157E-01
  16.529  0.242E-01  0.242E-01
  16.629  0.238E-01  0.238E-01
  16.729  0.196E-01  0.196E-01
  16.829  0.873E-02  0.873E-02
  16.929  0.198E-01  0.198E-01
  17.029  0.327E-01  0.327E-01
  17.129  0.134E-01  0.134E-01
  17.229  0.100E-01  0.100E-01
  17.329  0.169E-01  0.169E-01
  17.429  0.290E-01  0.290E-01
  17.529  0.125E-01  0.125E-01
  17.629  0.148E-01  0.148E-01
  17.729  0.277E-01  0.277E-01
  17.829  0.390E-02  0.390E-02
  17.929  0.125E-02  0.125E-02
  18.029  0.218E-01  0.218E-01
  18.129  0.105E-01  0.105E-01
  18.229  0.848E-03  0.848E-03
  18.329  0.662E-02  0.662E-02
  18.429  0.150E-01  0.150E-01
  18.529  0.632E-02  0.632E-02
  18.629  0.588E-02  0.588E-02
  18.729  0.115E-01  0.115E-01
  18.829  0.165E-02  0.165E-02
  18.929  0.139E-01  0.139E-01
  19.029  0.860E-02  0.860E-02
  19.129  0.764E-03  0.764E-03
  19.229  0.294E-02  0.294E-02
  19.329  0.660E-02  0.660E-02
  19.429  0.485E-02  0.485E-02
  19.529  0.278E-03  0.278E-03
  19.629  0.145E-02  0.145E-02
  19.729  0.312E-02  0.312E-02
  19.829  0.929E-02  0.929E-02
  19.929  0.488E-03  0.488E-03
  20.029  0.250E-05  0.250E-05
  20.129  0.926E-03  0.926E-03
  20.229  0.839E-02  0.839E-02
  20.329  0.439E-02  0.439E-02
  20.429  0.153E-02  0.153E-02
  20.529  0.279E-02  0.279E-02
  20.629  0.332E-02  0.332E-02
  20.729  0.514E-03  0.514E-03
  20.829  0.254E-02  0.254E-02
  20.929  0.915E-03  0.915E-03
  21.029  0.132E-02  0.132E-02
  21.129  0.526E-03  0.526E-03
  21.229  0.117E-03  0.117E-03
  21.329  0.822E-06  0.822E-06
  21.429  0.781E-10  0.781E-10
  21.529  0.114E-15  0.114E-15
